wavelength_A,normalized_intensity
3900.00,0.7194
3901.00,0.7475
3902.00,0.7703
3903.00,0.7881
3904.00,0.7929
3905.00,0.7854
3906.00,0.7845
3907.00,0.8013
3908.00,0.8344
3909.00,0.8854
3910.00,0.9040
3911.00,0.9238
3912.00,0.9305
3913.00,0.9255
3914.00,0.9238
3915.00,0.9172
3916.00,0.8957
3917.00,0.9040
3918.00,0.9083
3919.00,0.9189
3920.00,0.9315
3921.00,0.9470
3922.00,0.9735
3923.00,0.9758
3924.00,0.9768
3925.00,0.9570
3926.00,0.9305
3927.00,0.8825
3928.00,0.8195
3929.00,0.7628
3930.00,0.7028
3931.00,0.6411
3932.00,0.5596
3933.00,0.5298
3934.00,0.5298
3935.00,0.6134
3936.00,0.6829
3937.00,0.7508
3938.00,0.8046
3939.00,0.8609
3940.00,0.8874
3941.00,0.8576
3942.00,0.8576
3943.00,0.8626
3944.00,0.8761
3945.00,0.8808
3946.00,0.8791
3947.00,0.8642
3948.00,0.8477
3949.00,0.8344
3950.00,0.8253
3951.00,0.8221
3952.00,0.8187
3953.00,0.8121
3954.00,0.8089
3955.00,0.7907
3956.00,0.7691
3957.00,0.7517
3958.00,0.7410
3959.00,0.7310
3960.00,0.7086
3961.00,0.6755
3962.00,0.6333
3963.00,0.5762
3964.00,0.5364
3965.00,0.5005
3966.00,0.4470
3967.00,0.3808
3968.00,0.3377
3969.00,0.3245
3970.00,0.3510
3971.00,0.3874
3972.00,0.4247
3973.00,0.4764
3974.00,0.5331
3975.00,0.5803
3976.00,0.6233
3977.00,0.6589
3978.00,0.6921
3979.00,0.7088
3980.00,0.7232
3981.00,0.7333
3982.00,0.7475
3983.00,0.7624
3984.00,0.7848
3985.00,0.8162
3986.00,0.8426
3987.00,0.8584
3988.00,0.8659
3989.00,0.8742
3990.00,0.9040
3991.00,0.9040
3992.00,0.9143
3993.00,0.9181
3994.00,0.9073
3995.00,0.8924
3996.00,0.8841
3997.00,0.8940
3998.00,0.9089
3999.00,0.9263
4000.00,0.9367
4001.00,0.9305
4002.00,0.9222
4003.00,0.9106
4004.00,0.9031
4005.00,0.9089
4006.00,0.9222
4007.00,0.9362
4008.00,0.9503
4009.00,0.9578
4010.00,0.9570
4011.00,0.9545
4012.00,0.9574
4013.00,0.9586
4014.00,0.9605
4015.00,0.9611
4016.00,0.9752
4017.00,0.9901
4018.00,1.0000
4019.00,0.9959
4020.00,0.9917
4021.00,0.9856
4022.00,0.9768
4023.00,0.9636
4024.00,0.9570
4025.00,0.9603
4026.00,0.9685
4027.00,0.9785
4028.00,0.9744
4029.00,0.9586
4030.00,0.9454
4031.00,0.9396
4032.00,0.9421
4033.00,0.9503
4034.00,0.9578
4035.00,0.9740
4036.00,0.9950
4037.00,1.0000
4038.00,0.9901
4039.00,0.9702
4040.00,0.9677
4041.00,0.9578
4042.00,0.9511
4043.00,0.9392
4044.00,0.9255
4045.00,0.9189
4046.00,0.9255
4047.00,0.9445
4048.00,0.9586
4049.00,0.9661
4050.00,0.9694
4051.00,0.9652
4052.00,0.9594
4053.00,0.9520
4054.00,0.9404
4055.00,0.9321
4056.00,0.9255
4057.00,0.9338
4058.00,0.9437
4059.00,0.9611
4060.00,0.9727
4061.00,0.9652
4062.00,0.9363
4063.00,0.9199
4064.00,0.9056
4065.00,0.8789
4066.00,0.8675
4067.00,0.8576
4068.00,0.8808
4069.00,0.8974
4070.00,0.9213
4071.00,0.9106
4072.00,0.8990
4073.00,0.8825
4074.00,0.8659
4075.00,0.8411
4076.00,0.8195
4077.00,0.7904
4078.00,0.7980
4079.00,0.8071
4080.00,0.8286
4081.00,0.8419
4082.00,0.8394
4083.00,0.8342
4084.00,0.8235
4085.00,0.8113
4086.00,0.8030
4087.00,0.7906
4088.00,0.7748
4089.00,0.7533
4090.00,0.7334
4091.00,0.7069
4092.00,0.6829
4093.00,0.6531
4094.00,0.6217
4095.00,0.5828
4096.00,0.5418
4097.00,0.5025
4098.00,0.4545
4099.00,0.3957
4100.00,0.3642
4101.00,0.3775
4102.00,0.4040
4103.00,0.4354
4104.00,0.4702
4105.00,0.5150
4106.00,0.5455
4107.00,0.5791
4108.00,0.6080
4109.00,0.6349
4110.00,0.6606
4111.00,0.6805
4112.00,0.6869
4113.00,0.7202
4114.00,0.7409
4115.00,0.7580
4116.00,0.7757
4117.00,0.8010
4118.00,0.8113
4119.00,0.7988
4120.00,0.7881
4121.00,0.7848
4122.00,0.7873
4123.00,0.7997
4124.00,0.8092
4125.00,0.8166
4126.00,0.8230
4127.00,0.8262
4128.00,0.8270
4129.00,0.8262
4130.00,0.8245
4131.00,0.8245
4132.00,0.8278
4133.00,0.8356
4134.00,0.8477
4135.00,0.8675
4136.00,0.9007
4137.00,0.9305
4138.00,0.9470
4139.00,0.9474
4140.00,0.9325
4141.00,0.9276
4142.00,0.9189
4143.00,0.9106
4144.00,0.9089
4145.00,0.9205
4146.00,0.9205
4147.00,0.9153
4148.00,0.8974
4149.00,0.8940
4150.00,0.9007
4151.00,0.9106
4152.00,0.9172
4153.00,0.9123
4154.00,0.8901
4155.00,0.8808
4156.00,0.8775
4157.00,0.8825
4158.00,0.8907
4159.00,0.9007
4160.00,0.9089
4161.00,0.9111
4162.00,0.9089
4163.00,0.9139
4164.00,0.9205
4165.00,0.9243
4166.00,0.9296
4167.00,0.9230
4168.00,0.9274
4169.00,0.8974
4170.00,0.8841
4171.00,0.8543
4172.00,0.8278
4173.00,0.8377
4174.00,0.8344
4175.00,0.8752
4176.00,0.8377
4177.00,0.8543
4178.00,0.8576
4179.00,0.8692
4180.00,0.8791
4181.00,0.8891
4182.00,0.8868
4183.00,0.8974
4184.00,0.8916
4185.00,0.8874
4186.00,0.8808
4187.00,0.8841
4188.00,0.8833
4189.00,0.8924
4190.00,0.9056
4191.00,0.9089
4192.00,0.9073
4193.00,0.9238
4194.00,0.9272
4195.00,0.9106
4196.00,0.8817
4197.00,0.8543
4198.00,0.8576
4199.00,0.8940
4200.00,0.9007
4201.00,0.8916
4202.00,0.8841
4203.00,0.8845
4204.00,0.8692
4205.00,0.8742
4206.00,0.8899
4207.00,0.9023
4208.00,0.9189
4209.00,0.9305
4210.00,0.9362
4211.00,0.9288
4212.00,0.9247
4213.00,0.9172
4214.00,0.9123
4215.00,0.9097
4216.00,0.9096
4217.00,0.9125
4218.00,0.9102
4219.00,0.9048
4220.00,0.9007
4221.00,0.8907
4222.00,0.8767
4223.00,0.8626
4224.00,0.8505
4225.00,0.8311
4226.00,0.8377
4227.00,0.8609
4228.00,0.8940
4229.00,0.9040
4230.00,0.8974
4231.00,0.8780
4232.00,0.8444
4233.00,0.8338
4234.00,0.8473
4235.00,0.8482
4236.00,0.8503
4237.00,0.8510
4238.00,0.8556
4239.00,0.8402
4240.00,0.8477
4241.00,0.8725
4242.00,0.8825
4243.00,0.8907
4244.00,0.8862
4245.00,0.8738
4246.00,0.8590
4247.00,0.8477
4248.00,0.8440
4249.00,0.8444
4250.00,0.8344
4251.00,0.8386
4252.00,0.8668
4253.00,0.8791
4254.00,0.8872
4255.00,0.8877
4256.00,0.8934
4257.00,0.8853
4258.00,0.8760
4259.00,0.8598
4260.00,0.8642
4261.00,0.8725
4262.00,0.8866
4263.00,0.9007
4264.00,0.8957
4265.00,0.8924
4266.00,0.8738
4267.00,0.8663
4268.00,0.8601
4269.00,0.8526
4270.00,0.8394
4271.00,0.8278
4272.00,0.8295
4273.00,0.8276
4274.00,0.8361
4275.00,0.8444
4276.00,0.8651
4277.00,0.8791
4278.00,0.8874
4279.00,0.8825
4280.00,0.8878
4281.00,0.8634
4282.00,0.8618
4283.00,0.8519
4284.00,0.8460
4285.00,0.8393
4286.00,0.8309
4287.00,0.8258
4288.00,0.8079
4289.00,0.7997
4290.00,0.8013
4291.00,0.8030
4292.00,0.8179
4293.00,0.8295
4294.00,0.8290
4295.00,0.8278
4296.00,0.8162
4297.00,0.8007
4298.00,0.7829
4299.00,0.7633
4300.00,0.7483
4301.00,0.7433
4302.00,0.7500
4303.00,0.7583
4304.00,0.7748
4305.00,0.7781
4306.00,0.7699
4307.00,0.7666
4308.00,0.7624
4309.00,0.7666
4310.00,0.7748
4311.00,0.7947
4312.00,0.7947
4313.00,0.7831
4314.00,0.7715
4315.00,0.7619
4316.00,0.7759
4317.00,0.7759
4318.00,0.7781
4319.00,0.7765
4320.00,0.7666
4321.00,0.7532
4322.00,0.7414
4323.00,0.7323
4324.00,0.7185
4325.00,0.7003
4326.00,0.6871
4327.00,0.6871
4328.00,0.6738
4329.00,0.6729
4330.00,0.6507
4331.00,0.6358
4332.00,0.6093
4333.00,0.5828
4334.00,0.5546
4335.00,0.5182
4336.00,0.4781
4337.00,0.4371
4338.00,0.4123
4339.00,0.3775
4340.00,0.3642
4341.00,0.3709
4342.00,0.4007
4343.00,0.4191
4344.00,0.4652
4345.00,0.4884
4346.00,0.5174
4347.00,0.5430
4348.00,0.5762
4349.00,0.5977
4350.00,0.6133
4351.00,0.6209
4352.00,0.6333
4353.00,0.6507
4354.00,0.6730
4355.00,0.7003
4356.00,0.7202
4357.00,0.7391
4358.00,0.7392
4359.00,0.7577
4360.00,0.7682
4361.00,0.7947
4362.00,0.7947
4363.00,0.7972
4364.00,0.8137
4365.00,0.8096
4366.00,0.8096
4367.00,0.8030
4368.00,0.8079
4369.00,0.8129
4370.00,0.8220
4371.00,0.8356
4372.00,0.8444
4373.00,0.8411
4374.00,0.8212
4375.00,0.8179
4376.00,0.8195
4377.00,0.8200
4378.00,0.8337
4379.00,0.8286
4380.00,0.8303
4381.00,0.8228
4382.00,0.8030
4383.00,0.7748
4384.00,0.7649
4385.00,0.7713
4386.00,0.7901
4387.00,0.7947
4388.00,0.8079
4389.00,0.8146
4390.00,0.8262
4391.00,0.8274
4392.00,0.8193
4393.00,0.8063
4394.00,0.8212
4395.00,0.8311
4396.00,0.8477
4397.00,0.8510
4398.00,0.8526
4399.00,0.8374
4400.00,0.8228
4401.00,0.8204
4402.00,0.8212
4403.00,0.8245
4404.00,0.8411
4405.00,0.8510
4406.00,0.8509
4407.00,0.8543
4408.00,0.8411
4409.00,0.8377
4410.00,0.8427
4411.00,0.8411
4412.00,0.8320
4413.00,0.8244
4414.00,0.8096
4415.00,0.8104
4416.00,0.8088
4417.00,0.8204
4418.00,0.8195
4419.00,0.8311
4420.00,0.8356
4421.00,0.8295
4422.00,0.8179
4423.00,0.8076
4424.00,0.8062
4425.00,0.7998
4426.00,0.8046
4427.00,0.8016
4428.00,0.8195
4429.00,0.8162
4430.00,0.8046
4431.00,0.8046
4432.00,0.8049
4433.00,0.8138
4434.00,0.8137
4435.00,0.8212
4436.00,0.8228
4437.00,0.8411
4438.00,0.8411
4439.00,0.8427
4440.00,0.8237
4441.00,0.7992
4442.00,0.7624
4443.00,0.7562
4444.00,0.7914
4445.00,0.8042
4446.00,0.8113
4447.00,0.8195
4448.00,0.8071
4449.00,0.8102
4450.00,0.8040
4451.00,0.8063
4452.00,0.7980
4453.00,0.7973
4454.00,0.7930
4455.00,0.7894
4456.00,0.7860
4457.00,0.7844
4458.00,0.7831
4459.00,0.7864
4460.00,0.7798
4461.00,0.7802
4462.00,0.7941
4463.00,0.8026
4464.00,0.8030
4465.00,0.7908
4466.00,0.7825
4467.00,0.7642
4468.00,0.7568
4469.00,0.7834
4470.00,0.7965
4471.00,0.8013
4472.00,0.8046
4473.00,0.7947
4474.00,0.8038
4475.00,0.8063
4476.00,0.8132
4477.00,0.8079
4478.00,0.8013
4479.00,0.7699
4480.00,0.7334
4481.00,0.7550
4482.00,0.7715
4483.00,0.7806
4484.00,0.7786
4485.00,0.7885
4486.00,0.7885
4487.00,0.7984
4488.00,0.7914
4489.00,0.7856
4490.00,0.7852
4491.00,0.7798
4492.00,0.7881
4493.00,0.8046
4494.00,0.8079
4495.00,0.7980
4496.00,0.8013
4497.00,0.8067
4498.00,0.8121
4499.00,0.8079
4500.00,0.8146
