wavelength_A,normalized_intensity
3900.00,0.7771
3901.00,0.7972
3902.00,0.8060
3903.00,0.8160
3904.00,0.8186
3905.00,0.8221
3906.00,0.8267
3907.00,0.8342
3908.00,0.8571
3909.00,0.8836
3910.00,0.8980
3911.00,0.9107
3912.00,0.9031
3913.00,0.8929
3914.00,0.8865
3915.00,0.8852
3916.00,0.8789
3917.00,0.8686
3918.00,0.8622
3919.00,0.8584
3920.00,0.8673
3921.00,0.8724
3922.00,0.8776
3923.00,0.8796
3924.00,0.8699
3925.00,0.8520
3926.00,0.8240
3927.00,0.7704
3928.00,0.6964
3929.00,0.6218
3930.00,0.5482
3931.00,0.4592
3932.00,0.4184
3933.00,0.4184
3934.00,0.4286
3935.00,0.4515
3936.00,0.5306
3937.00,0.6146
3938.00,0.6811
3939.00,0.7551
3940.00,0.8010
3941.00,0.8061
3942.00,0.7985
3943.00,0.7990
3944.00,0.8049
3945.00,0.8119
3946.00,0.8265
3947.00,0.8343
3948.00,0.8339
3949.00,0.8320
3950.00,0.8304
3951.00,0.8344
3952.00,0.8316
3953.00,0.8189
3954.00,0.8048
3955.00,0.8023
3956.00,0.7889
3957.00,0.7710
3958.00,0.7575
3959.00,0.7283
3960.00,0.7079
3961.00,0.6913
3962.00,0.6582
3963.00,0.6148
3964.00,0.5561
3965.00,0.5001
3966.00,0.4362
3967.00,0.3724
3968.00,0.3265
3969.00,0.3367
3970.00,0.3724
3971.00,0.4260
3972.00,0.4876
3973.00,0.5485
3974.00,0.5982
3975.00,0.6454
3976.00,0.6926
3977.00,0.7283
3978.00,0.7628
3979.00,0.7834
3980.00,0.8007
3981.00,0.8064
3982.00,0.8189
3983.00,0.8367
3984.00,0.8501
3985.00,0.8603
3986.00,0.8688
3987.00,0.8776
3988.00,0.8865
3989.00,0.9056
3990.00,0.9260
3991.00,0.9388
3992.00,0.9490
3993.00,0.9392
3994.00,0.9281
3995.00,0.9121
3996.00,0.9056
3997.00,0.9056
3998.00,0.9204
3999.00,0.9353
4000.00,0.9618
4001.00,0.9592
4002.00,0.9643
4003.00,0.9452
4004.00,0.9260
4005.00,0.9286
4006.00,0.9260
4007.00,0.9442
4008.00,0.9834
4009.00,1.0000
4010.00,0.9809
4011.00,0.9694
4012.00,0.9595
4013.00,0.9601
4014.00,0.9536
4015.00,0.9636
4016.00,0.9662
4017.00,0.9758
4018.00,0.9809
4019.00,0.9812
4020.00,0.9785
4021.00,0.9776
4022.00,0.9751
4023.00,0.9732
4024.00,0.9726
4025.00,0.9751
4026.00,0.9767
4027.00,0.9796
4028.00,0.9679
4029.00,0.9541
4030.00,0.9311
4031.00,0.9196
4032.00,0.9209
4033.00,0.9375
4034.00,0.9534
4035.00,0.9636
4036.00,0.9821
4037.00,0.9892
4038.00,0.9936
4039.00,0.9943
4040.00,0.9923
4041.00,0.9834
4042.00,0.9658
4043.00,0.9579
4044.00,0.9426
4045.00,0.9337
4046.00,0.9362
4047.00,0.9605
4048.00,0.9783
4049.00,0.9888
4050.00,0.9796
4051.00,0.9681
4052.00,0.9477
4053.00,0.9247
4054.00,0.9158
4055.00,0.9152
4056.00,0.9223
4057.00,0.9292
4058.00,0.9362
4059.00,0.9420
4060.00,0.9458
4061.00,0.9391
4062.00,0.9211
4063.00,0.9134
4064.00,0.9082
4065.00,0.9056
4066.00,0.9094
4067.00,0.9241
4068.00,0.9503
4069.00,0.9455
4070.00,0.9306
4071.00,0.9152
4072.00,0.9107
4073.00,0.9056
4074.00,0.8954
4075.00,0.8827
4076.00,0.8622
4077.00,0.8451
4078.00,0.8469
4079.00,0.8724
4080.00,0.8929
4081.00,0.8878
4082.00,0.8724
4083.00,0.8495
4084.00,0.8423
4085.00,0.8469
4086.00,0.8520
4087.00,0.8699
4088.00,0.8750
4089.00,0.8673
4090.00,0.8374
4091.00,0.8128
4092.00,0.7860
4093.00,0.7650
4094.00,0.7360
4095.00,0.7003
4096.00,0.6556
4097.00,0.6116
4098.00,0.5698
4099.00,0.5000
4100.00,0.4643
4101.00,0.4898
4102.00,0.5102
4103.00,0.5430
4104.00,0.5730
4105.00,0.6358
4106.00,0.6582
4107.00,0.7031
4108.00,0.7284
4109.00,0.7589
4110.00,0.7857
4111.00,0.8093
4112.00,0.8132
4113.00,0.8291
4114.00,0.8380
4115.00,0.8431
4116.00,0.8482
4117.00,0.8571
4118.00,0.8648
4119.00,0.8692
4120.00,0.8635
4121.00,0.8731
4122.00,0.8712
4123.00,0.8827
4124.00,0.8788
4125.00,0.8788
4126.00,0.8721
4127.00,0.8673
4128.00,0.8699
4129.00,0.8839
4130.00,0.8801
4131.00,0.8820
4132.00,0.8878
4133.00,0.8836
4134.00,0.8954
4135.00,0.9107
4136.00,0.9388
4137.00,0.9566
4138.00,0.9821
4139.00,0.9770
4140.00,0.9651
4141.00,0.9401
4142.00,0.9375
4143.00,0.9235
4144.00,0.9184
4145.00,0.9413
4146.00,0.9592
4147.00,0.9643
4148.00,0.9557
4149.00,0.9574
4150.00,0.9566
4151.00,0.9490
4152.00,0.9330
4153.00,0.9120
4154.00,0.8990
4155.00,0.8903
4156.00,0.8903
4157.00,0.9056
4158.00,0.9056
4159.00,0.9210
4160.00,0.9391
4161.00,0.9529
4162.00,0.9700
4163.00,0.9622
4164.00,0.9673
4165.00,0.9507
4166.00,0.9595
4167.00,0.9490
4168.00,0.9658
4169.00,0.9515
4170.00,0.9311
4171.00,0.9082
4172.00,0.8801
4173.00,0.8622
4174.00,0.8546
4175.00,0.8760
4176.00,0.8827
4177.00,0.8954
4178.00,0.9018
4179.00,0.9126
4180.00,0.9254
4181.00,0.9324
4182.00,0.9152
4183.00,0.9094
4184.00,0.9066
4185.00,0.9107
4186.00,0.9133
4187.00,0.9133
4188.00,0.9158
4189.00,0.9252
4190.00,0.9381
4191.00,0.9475
4192.00,0.9530
4193.00,0.9680
4194.00,0.9643
4195.00,0.9471
4196.00,0.9213
4197.00,0.8948
4198.00,0.8878
4199.00,0.8954
4200.00,0.9018
4201.00,0.9031
4202.00,0.9088
4203.00,0.9220
4204.00,0.9308
4205.00,0.9385
4206.00,0.9426
4207.00,0.9432
4208.00,0.9509
4209.00,0.9541
4210.00,0.9475
4211.00,0.9509
4212.00,0.9490
4213.00,0.9509
4214.00,0.9496
4215.00,0.9362
4216.00,0.9270
4217.00,0.9288
4218.00,0.9252
4219.00,0.9268
4220.00,0.9319
4221.00,0.9348
4222.00,0.9260
4223.00,0.9139
4224.00,0.8839
4225.00,0.8463
4226.00,0.8367
4227.00,0.8457
4228.00,0.8724
4229.00,0.9184
4230.00,0.9439
4231.00,0.9266
4232.00,0.8929
4233.00,0.8801
4234.00,0.8817
4235.00,0.8855
4236.00,0.8929
4237.00,0.9011
4238.00,0.9062
4239.00,0.9110
4240.00,0.9177
4241.00,0.9260
4242.00,0.9311
4243.00,0.9349
4244.00,0.9206
4245.00,0.9051
4246.00,0.8833
4247.00,0.8724
4248.00,0.8763
4249.00,0.8852
4250.00,0.8871
4251.00,0.8941
4252.00,0.9083
4253.00,0.9196
4254.00,0.9260
4255.00,0.9235
4256.00,0.9298
4257.00,0.9158
4258.00,0.9037
4259.00,0.8986
4260.00,0.8929
4261.00,0.9094
4262.00,0.9375
4263.00,0.9528
4264.00,0.9694
4265.00,0.9617
4266.00,0.9482
4267.00,0.9413
4268.00,0.9273
4269.00,0.9082
4270.00,0.8916
4271.00,0.8750
4272.00,0.8740
4273.00,0.8796
4274.00,0.8701
4275.00,0.8826
4276.00,0.9046
4277.00,0.9190
4278.00,0.9243
4279.00,0.9263
4280.00,0.9335
4281.00,0.9219
4282.00,0.9187
4283.00,0.9094
4284.00,0.9048
4285.00,0.9065
4286.00,0.8967
4287.00,0.8782
4288.00,0.8597
4289.00,0.8546
4290.00,0.8578
4291.00,0.8622
4292.00,0.8691
4293.00,0.8763
4294.00,0.8739
4295.00,0.8737
4296.00,0.8648
4297.00,0.8486
4298.00,0.8310
4299.00,0.8095
4300.00,0.7985
4301.00,0.7881
4302.00,0.8010
4303.00,0.8036
4304.00,0.8163
4305.00,0.8214
4306.00,0.8329
4307.00,0.8335
4308.00,0.8304
4309.00,0.8355
4310.00,0.8342
4311.00,0.8342
4312.00,0.8291
4313.00,0.8240
4314.00,0.8265
4315.00,0.8232
4316.00,0.8495
4317.00,0.8546
4318.00,0.8508
4319.00,0.8427
4320.00,0.8354
4321.00,0.8304
4322.00,0.8304
4323.00,0.8291
4324.00,0.8112
4325.00,0.7908
4326.00,0.7806
4327.00,0.7832
4328.00,0.7857
4329.00,0.7780
4330.00,0.7615
4331.00,0.7478
4332.00,0.7395
4333.00,0.7226
4334.00,0.7092
4335.00,0.6620
4336.00,0.6071
4337.00,0.5434
4338.00,0.4898
4339.00,0.4592
4340.00,0.4388
4341.00,0.4490
4342.00,0.4820
4343.00,0.5278
4344.00,0.5722
4345.00,0.6113
4346.00,0.6403
4347.00,0.6849
4348.00,0.7194
4349.00,0.7423
4350.00,0.7450
4351.00,0.7372
4352.00,0.7398
4353.00,0.7628
4354.00,0.7883
4355.00,0.8125
4356.00,0.8278
4357.00,0.8437
4358.00,0.8367
4359.00,0.8559
4360.00,0.8699
4361.00,0.8852
4362.00,0.9158
4363.00,0.9235
4364.00,0.9177
4365.00,0.9088
4366.00,0.9027
4367.00,0.8922
4368.00,0.8884
4369.00,0.8852
4370.00,0.8862
4371.00,0.8839
4372.00,0.8772
4373.00,0.8717
4374.00,0.8673
4375.00,0.8699
4376.00,0.8839
4377.00,0.8916
4378.00,0.9019
4379.00,0.9005
4380.00,0.8980
4381.00,0.8827
4382.00,0.8648
4383.00,0.8367
4384.00,0.8061
4385.00,0.8118
4386.00,0.8304
4387.00,0.8436
4388.00,0.8634
4389.00,0.8811
4390.00,0.9107
4391.00,0.9133
4392.00,0.8922
4393.00,0.8673
4394.00,0.8724
4395.00,0.8980
4396.00,0.9133
4397.00,0.9158
4398.00,0.9031
4399.00,0.8857
4400.00,0.8744
4401.00,0.8776
4402.00,0.8788
4403.00,0.8890
4404.00,0.8967
4405.00,0.9015
4406.00,0.8915
4407.00,0.8882
4408.00,0.8862
4409.00,0.8827
4410.00,0.8878
4411.00,0.8878
4412.00,0.8852
4413.00,0.8760
4414.00,0.8641
4415.00,0.8540
4416.00,0.8508
4417.00,0.8673
4418.00,0.8852
4419.00,0.8954
4420.00,0.9062
4421.00,0.8852
4422.00,0.8905
4423.00,0.8944
4424.00,0.8945
4425.00,0.8964
4426.00,0.8996
4427.00,0.9026
4428.00,0.9145
4429.00,0.9107
4430.00,0.9098
4431.00,0.8973
4432.00,0.8913
4433.00,0.8865
4434.00,0.8796
4435.00,0.8827
4436.00,0.8941
4437.00,0.9056
4438.00,0.9082
4439.00,0.9184
4440.00,0.9031
4441.00,0.8721
4442.00,0.8335
4443.00,0.8265
4444.00,0.8616
4445.00,0.8776
4446.00,0.9082
4447.00,0.9031
4448.00,0.8961
4449.00,0.8941
4450.00,0.8890
4451.00,0.8929
4452.00,0.8878
4453.00,0.8871
4454.00,0.8827
4455.00,0.8527
4456.00,0.8520
4457.00,0.8444
4458.00,0.8520
4459.00,0.8648
4460.00,0.8731
4461.00,0.8718
4462.00,0.8724
4463.00,0.8705
4464.00,0.8661
4465.00,0.8546
4466.00,0.8495
4467.00,0.8189
4468.00,0.8240
4469.00,0.8534
4470.00,0.8705
4471.00,0.8820
4472.00,0.8852
4473.00,0.8916
4474.00,0.9082
4475.00,0.9018
4476.00,0.9126
4477.00,0.8980
4478.00,0.8846
4479.00,0.8469
4480.00,0.8233
4481.00,0.8214
4482.00,0.8367
4483.00,0.8667
4484.00,0.8903
4485.00,0.9056
4486.00,0.8941
4487.00,0.8827
4488.00,0.8559
4489.00,0.8469
4490.00,0.8599
4491.00,0.8635
4492.00,0.8776
4493.00,0.8903
4494.00,0.8929
4495.00,0.8957
4496.00,0.8941
4497.00,0.8904
4498.00,0.8827
4499.00,0.8878
4500.00,0.8941
