wavelength_A,normalized_intensity
3900.00,0.2709
3901.00,0.2633
3902.00,0.2747
3903.00,0.2662
3904.00,0.2676
3905.00,0.2640
3906.00,0.2599
3907.00,0.2454
3908.00,0.2510
3909.00,0.2738
3910.00,0.2819
3911.00,0.2860
3912.00,0.2939
3913.00,0.3061
3914.00,0.3082
3915.00,0.3224
3916.00,0.3174
3917.00,0.2957
3918.00,0.2589
3919.00,0.2306
3920.00,0.2102
3921.00,0.2041
3922.00,0.1969
3923.00,0.1924
3924.00,0.1969
3925.00,0.2041
3926.00,0.1929
3927.00,0.1684
3928.00,0.1408
3929.00,0.1153
3930.00,0.0960
3931.00,0.0816
3932.00,0.0750
3933.00,0.0628
3934.00,0.0612
3935.00,0.0724
3936.00,0.0949
3937.00,0.1139
3938.00,0.1357
3939.00,0.1469
3940.00,0.1510
3941.00,0.1612
3942.00,0.1737
3943.00,0.1876
3944.00,0.2007
3945.00,0.2112
3946.00,0.2235
3947.00,0.2347
3948.00,0.2571
3949.00,0.2673
3950.00,0.2755
3951.00,0.2831
3952.00,0.2796
3953.00,0.2847
3954.00,0.2918
3955.00,0.2939
3956.00,0.2918
3957.00,0.2939
3958.00,0.2924
3959.00,0.2837
3960.00,0.2638
3961.00,0.2370
3962.00,0.2051
3963.00,0.1770
3964.00,0.1510
3965.00,0.1324
3966.00,0.1179
3967.00,0.1042
3968.00,0.0959
3969.00,0.0959
3970.00,0.1051
3971.00,0.1204
3972.00,0.1395
3973.00,0.1653
3974.00,0.1898
3975.00,0.2347
3976.00,0.2714
3977.00,0.3010
3978.00,0.3071
3979.00,0.3220
3980.00,0.3398
3981.00,0.3582
3982.00,0.3753
3983.00,0.3835
3984.00,0.3874
3985.00,0.3976
3986.00,0.4242
3987.00,0.4388
3988.00,0.4551
3989.00,0.4592
3990.00,0.4551
3991.00,0.4531
3992.00,0.4592
3993.00,0.4558
3994.00,0.4490
3995.00,0.4416
3996.00,0.4612
3997.00,0.4658
3998.00,0.4776
3999.00,0.4959
4000.00,0.5104
4001.00,0.5184
4002.00,0.5143
4003.00,0.5071
4004.00,0.4806
4005.00,0.4571
4006.00,0.4490
4007.00,0.4461
4008.00,0.4735
4009.00,0.4918
4010.00,0.4847
4011.00,0.4837
4012.00,0.4980
4013.00,0.5367
4014.00,0.5563
4015.00,0.5633
4016.00,0.5643
4017.00,0.5541
4018.00,0.5429
4019.00,0.5327
4020.00,0.5245
4021.00,0.5141
4022.00,0.5082
4023.00,0.5082
4024.00,0.5204
4025.00,0.5276
4026.00,0.5207
4027.00,0.5128
4028.00,0.5035
4029.00,0.4939
4030.00,0.4663
4031.00,0.4306
4032.00,0.4020
4033.00,0.4000
4034.00,0.4041
4035.00,0.4222
4036.00,0.4561
4037.00,0.4969
4038.00,0.5306
4039.00,0.5265
4040.00,0.5153
4041.00,0.5015
4042.00,0.4774
4043.00,0.4449
4044.00,0.3888
4045.00,0.3510
4046.00,0.3510
4047.00,0.3959
4048.00,0.4388
4049.00,0.4914
4050.00,0.5449
4051.00,0.5796
4052.00,0.5592
4053.00,0.5388
4054.00,0.5061
4055.00,0.4745
4056.00,0.4483
4057.00,0.4327
4058.00,0.4265
4059.00,0.4286
4060.00,0.4449
4061.00,0.4286
4062.00,0.4245
4063.00,0.3932
4064.00,0.3959
4065.00,0.4000
4066.00,0.4204
4067.00,0.4469
4068.00,0.4694
4069.00,0.4653
4070.00,0.4492
4071.00,0.4367
4072.00,0.4403
4073.00,0.4531
4074.00,0.4658
4075.00,0.4490
4076.00,0.4163
4077.00,0.4047
4078.00,0.4082
4079.00,0.4398
4080.00,0.4745
4081.00,0.5082
4082.00,0.5276
4083.00,0.5362
4084.00,0.5451
4085.00,0.5515
4086.00,0.5684
4087.00,0.5903
4088.00,0.6122
4089.00,0.6122
4090.00,0.6122
4091.00,0.5989
4092.00,0.5796
4093.00,0.5546
4094.00,0.5378
4095.00,0.5194
4096.00,0.5041
4097.00,0.4923
4098.00,0.4828
4099.00,0.4781
4100.00,0.4694
4101.00,0.4694
4102.00,0.4796
4103.00,0.4969
4104.00,0.5133
4105.00,0.5305
4106.00,0.5327
4107.00,0.5393
4108.00,0.5367
4109.00,0.5357
4110.00,0.5347
4111.00,0.5367
4112.00,0.5199
4113.00,0.5286
4114.00,0.5194
4115.00,0.5306
4116.00,0.5224
4117.00,0.5122
4118.00,0.5041
4119.00,0.4791
4120.00,0.4888
4121.00,0.4847
4122.00,0.4929
4123.00,0.4959
4124.00,0.4968
4125.00,0.4932
4126.00,0.4929
4127.00,0.4893
4128.00,0.4811
4129.00,0.4614
4130.00,0.4478
4131.00,0.4286
4132.00,0.4276
4133.00,0.3966
4134.00,0.4082
4135.00,0.4163
4136.00,0.4551
4137.00,0.4694
4138.00,0.4796
4139.00,0.4714
4140.00,0.4745
4141.00,0.4265
4142.00,0.4102
4143.00,0.4041
4144.00,0.3755
4145.00,0.3898
4146.00,0.3980
4147.00,0.4145
4148.00,0.4102
4149.00,0.4102
4150.00,0.3959
4151.00,0.3939
4152.00,0.3980
4153.00,0.3959
4154.00,0.3964
4155.00,0.3898
4156.00,0.4082
4157.00,0.4184
4158.00,0.4367
4159.00,0.4490
4160.00,0.4571
4161.00,0.4610
4162.00,0.4582
4163.00,0.4597
4164.00,0.4551
4165.00,0.4464
4166.00,0.4413
4167.00,0.4388
4168.00,0.4535
4169.00,0.4643
4170.00,0.4520
4171.00,0.4276
4172.00,0.4041
4173.00,0.3837
4174.00,0.3714
4175.00,0.3860
4176.00,0.3837
4177.00,0.3888
4178.00,0.3878
4179.00,0.3946
4180.00,0.3935
4181.00,0.3990
4182.00,0.4236
4183.00,0.4480
4184.00,0.4582
4185.00,0.4633
4186.00,0.4633
4187.00,0.4663
4188.00,0.4582
4189.00,0.4558
4190.00,0.4536
4191.00,0.4566
4192.00,0.4612
4193.00,0.4694
4194.00,0.4694
4195.00,0.4571
4196.00,0.4185
4197.00,0.3806
4198.00,0.3653
4199.00,0.3939
4200.00,0.4082
4201.00,0.4138
4202.00,0.4306
4203.00,0.4346
4204.00,0.4551
4205.00,0.4704
4206.00,0.4949
4207.00,0.5143
4208.00,0.5265
4209.00,0.5263
4210.00,0.5130
4211.00,0.4946
4212.00,0.4796
4213.00,0.4770
4214.00,0.4689
4215.00,0.4653
4216.00,0.4796
4217.00,0.5210
4218.00,0.5786
4219.00,0.6000
4220.00,0.6204
4221.00,0.6204
4222.00,0.6041
4223.00,0.5510
4224.00,0.4771
4225.00,0.3857
4226.00,0.4082
4227.00,0.4000
4228.00,0.4327
4229.00,0.4235
4230.00,0.4582
4231.00,0.5247
4232.00,0.5388
4233.00,0.5673
4234.00,0.5347
4235.00,0.5306
4236.00,0.5143
4237.00,0.5265
4238.00,0.5371
4239.00,0.5704
4240.00,0.5888
4241.00,0.6102
4242.00,0.6321
4243.00,0.6653
4244.00,0.6776
4245.00,0.6836
4246.00,0.6673
4247.00,0.6520
4248.00,0.6247
4249.00,0.5972
4250.00,0.5449
4251.00,0.5184
4252.00,0.5276
4253.00,0.5429
4254.00,0.5429
4255.00,0.5490
4256.00,0.5592
4257.00,0.5653
4258.00,0.5551
4259.00,0.5354
4260.00,0.5204
4261.00,0.5633
4262.00,0.6000
4263.00,0.6449
4264.00,0.6694
4265.00,0.6939
4266.00,0.6942
4267.00,0.6939
4268.00,0.6531
4269.00,0.6092
4270.00,0.5474
4271.00,0.4872
4272.00,0.4653
4273.00,0.4211
4274.00,0.4327
4275.00,0.4367
4276.00,0.5000
4277.00,0.5510
4278.00,0.6224
4279.00,0.6327
4280.00,0.6103
4281.00,0.5898
4282.00,0.5847
4283.00,0.5903
4284.00,0.5944
4285.00,0.6077
4286.00,0.5959
4287.00,0.5813
4288.00,0.5528
4289.00,0.5408
4290.00,0.5102
4291.00,0.5061
4292.00,0.5046
4293.00,0.5296
4294.00,0.5540
4295.00,0.5469
4296.00,0.5469
4297.00,0.5235
4298.00,0.4939
4299.00,0.4633
4300.00,0.4612
4301.00,0.4239
4302.00,0.4520
4303.00,0.4383
4304.00,0.4388
4305.00,0.4204
4306.00,0.3837
4307.00,0.3551
4308.00,0.3421
4309.00,0.3347
4310.00,0.3531
4311.00,0.4184
4312.00,0.4653
4313.00,0.5041
4314.00,0.5633
4315.00,0.6468
4316.00,0.7306
4317.00,0.7592
4318.00,0.7837
4319.00,0.7918
4320.00,0.8082
4321.00,0.7673
4322.00,0.7158
4323.00,0.6486
4324.00,0.6047
4325.00,0.5388
4326.00,0.4980
4327.00,0.5265
4328.00,0.5959
4329.00,0.6968
4330.00,0.7469
4331.00,0.7628
4332.00,0.7776
4333.00,0.8015
4334.00,0.8327
4335.00,0.8327
4336.00,0.8054
4337.00,0.7510
4338.00,0.7235
4339.00,0.6857
4340.00,0.6694
4341.00,0.6449
4342.00,0.6673
4343.00,0.7094
4344.00,0.7378
4345.00,0.7689
4346.00,0.7878
4347.00,0.8041
4348.00,0.8224
4349.00,0.8163
4350.00,0.8088
4351.00,0.7612
4352.00,0.7403
4353.00,0.7184
4354.00,0.7184
4355.00,0.7503
4356.00,0.7598
4357.00,0.8039
4358.00,0.7939
4359.00,0.7898
4360.00,0.7857
4361.00,0.8143
4362.00,0.8510
4363.00,0.8857
4364.00,0.9200
4365.00,0.9306
4366.00,0.9143
4367.00,0.8898
4368.00,0.8571
4369.00,0.8163
4370.00,0.7918
4371.00,0.8051
4372.00,0.7837
4373.00,0.7714
4374.00,0.7429
4375.00,0.6939
4376.00,0.6939
4377.00,0.6694
4378.00,0.7551
4379.00,0.7510
4380.00,0.7347
4381.00,0.6776
4382.00,0.6082
4383.00,0.4939
4384.00,0.4490
4385.00,0.5009
4386.00,0.5480
4387.00,0.5709
4388.00,0.6036
4389.00,0.6168
4390.00,0.6531
4391.00,0.6724
4392.00,0.6876
4393.00,0.6980
4394.00,0.7143
4395.00,0.7429
4396.00,0.7918
4397.00,0.8327
4398.00,0.8204
4399.00,0.7775
4400.00,0.7490
4401.00,0.7194
4402.00,0.6837
4403.00,0.6633
4404.00,0.6122
4405.00,0.6122
4406.00,0.5831
4407.00,0.6265
4408.00,0.6327
4409.00,0.6735
4410.00,0.7245
4411.00,0.7714
4412.00,0.8000
4413.00,0.7947
4414.00,0.7796
4415.00,0.7551
4416.00,0.7143
4417.00,0.7265
4418.00,0.7714
4419.00,0.7755
4420.00,0.8235
4421.00,0.7694
4422.00,0.7653
4423.00,0.7551
4424.00,0.7694
4425.00,0.8000
4426.00,0.8089
4427.00,0.7927
4428.00,0.7952
4429.00,0.7913
4430.00,0.7875
4431.00,0.7786
4432.00,0.7742
4433.00,0.7663
4434.00,0.7471
4435.00,0.7296
4436.00,0.7592
4437.00,0.7735
4438.00,0.8163
4439.00,0.8714
4440.00,0.8755
4441.00,0.8157
4442.00,0.7735
4443.00,0.7673
4444.00,0.8204
4445.00,0.8571
4446.00,0.9082
4447.00,0.9122
4448.00,0.9096
4449.00,0.8898
4450.00,0.8796
4451.00,0.8816
4452.00,0.8735
4453.00,0.8571
4454.00,0.8204
4455.00,0.7844
4456.00,0.7571
4457.00,0.7459
4458.00,0.7362
4459.00,0.7217
4460.00,0.6959
4461.00,0.6939
4462.00,0.7109
4463.00,0.7469
4464.00,0.7653
4465.00,0.8102
4466.00,0.8327
4467.00,0.8531
4468.00,0.8531
4469.00,0.8421
4470.00,0.8265
4471.00,0.8316
4472.00,0.8551
4473.00,0.8653
4474.00,0.8857
4475.00,0.9143
4476.00,0.9573
4477.00,0.9633
4478.00,0.9551
4479.00,0.9306
4480.00,0.8735
4481.00,0.8490
4482.00,0.8653
4483.00,0.9142
4484.00,0.9755
4485.00,0.9878
4486.00,0.9796
4487.00,0.9714
4488.00,0.9633
4489.00,0.9265
4490.00,0.9191
4491.00,0.9010
4492.00,0.8898
4493.00,0.8939
4494.00,0.8776
4495.00,0.8735
4496.00,0.8760
4497.00,0.9257
4498.00,0.9745
4499.00,1.0000
4500.00,0.9796
