wavelength_A,normalized_intensity
3900.00,0.2235
3901.00,0.2297
3902.00,0.2378
3903.00,0.2462
3904.00,0.2518
3905.00,0.2557
3906.00,0.2571
3907.00,0.2702
3908.00,0.2725
3909.00,0.2672
3910.00,0.2597
3911.00,0.2522
3912.00,0.2605
3913.00,0.2792
3914.00,0.3009
3915.00,0.3123
3916.00,0.3179
3917.00,0.3032
3918.00,0.2762
3919.00,0.2582
3920.00,0.2447
3921.00,0.2417
3922.00,0.2370
3923.00,0.2354
3924.00,0.2368
3925.00,0.2387
3926.00,0.2286
3927.00,0.2051
3928.00,0.1848
3929.00,0.1591
3930.00,0.1523
3931.00,0.1471
3932.00,0.1711
3933.00,0.1831
3934.00,0.1816
3935.00,0.1796
3936.00,0.1833
3937.00,0.1880
3938.00,0.1916
3939.00,0.2000
3940.00,0.2042
3941.00,0.1907
3942.00,0.1741
3943.00,0.1730
3944.00,0.1937
3945.00,0.2102
3946.00,0.2284
3947.00,0.2485
3948.00,0.2687
3949.00,0.2846
3950.00,0.2989
3951.00,0.3129
3952.00,0.2912
3953.00,0.2642
3954.00,0.2361
3955.00,0.2169
3956.00,0.1978
3957.00,0.1786
3958.00,0.1564
3959.00,0.1591
3960.00,0.1494
3961.00,0.1479
3962.00,0.1539
3963.00,0.1651
3964.00,0.1771
3965.00,0.1814
3966.00,0.1831
3967.00,0.1892
3968.00,0.1982
3969.00,0.2162
3970.00,0.2252
3971.00,0.2349
3972.00,0.2419
3973.00,0.2640
3974.00,0.2865
3975.00,0.2942
3976.00,0.3093
3977.00,0.3070
3978.00,0.3145
3979.00,0.3105
3980.00,0.3288
3981.00,0.3378
3982.00,0.3483
3983.00,0.3588
3984.00,0.3573
3985.00,0.3535
3986.00,0.3517
3987.00,0.3565
3988.00,0.3543
3989.00,0.3532
3990.00,0.3569
3991.00,0.3594
3992.00,0.3603
3993.00,0.3587
3994.00,0.3468
3995.00,0.3291
3996.00,0.3243
3997.00,0.3348
3998.00,0.3505
3999.00,0.3678
4000.00,0.3882
4001.00,0.3948
4002.00,0.3971
4003.00,0.3993
4004.00,0.3918
4005.00,0.3873
4006.00,0.3708
4007.00,0.3686
4008.00,0.3851
4009.00,0.3948
4010.00,0.4102
4011.00,0.4172
4012.00,0.4288
4013.00,0.4309
4014.00,0.4288
4015.00,0.4175
4016.00,0.4002
4017.00,0.3873
4018.00,0.3813
4019.00,0.3693
4020.00,0.3618
4021.00,0.3673
4022.00,0.3813
4023.00,0.3858
4024.00,0.3888
4025.00,0.4083
4026.00,0.4143
4027.00,0.4053
4028.00,0.3720
4029.00,0.3243
4030.00,0.2942
4031.00,0.3002
4032.00,0.3183
4033.00,0.3670
4034.00,0.4106
4035.00,0.4531
4036.00,0.4864
4037.00,0.5044
4038.00,0.5014
4039.00,0.4864
4040.00,0.4669
4041.00,0.4384
4042.00,0.4055
4043.00,0.3873
4044.00,0.3633
4045.00,0.3648
4046.00,0.3768
4047.00,0.3971
4048.00,0.4192
4049.00,0.4422
4050.00,0.4665
4051.00,0.4744
4052.00,0.4714
4053.00,0.4579
4054.00,0.4361
4055.00,0.4309
4056.00,0.4366
4057.00,0.4459
4058.00,0.4474
4059.00,0.4350
4060.00,0.4192
4061.00,0.4053
4062.00,0.3993
4063.00,0.3955
4064.00,0.4083
4065.00,0.4098
4066.00,0.4068
4067.00,0.4151
4068.00,0.4211
4069.00,0.4203
4070.00,0.4177
4071.00,0.4158
4072.00,0.4324
4073.00,0.4504
4074.00,0.4384
4075.00,0.4203
4076.00,0.4023
4077.00,0.3942
4078.00,0.4106
4079.00,0.4211
4080.00,0.4324
4081.00,0.4369
4082.00,0.4429
4083.00,0.4519
4084.00,0.4658
4085.00,0.4819
4086.00,0.4924
4087.00,0.5014
4088.00,0.4939
4089.00,0.4924
4090.00,0.4815
4091.00,0.4702
4092.00,0.4582
4093.00,0.4440
4094.00,0.4297
4095.00,0.4173
4096.00,0.4113
4097.00,0.4068
4098.00,0.4075
4099.00,0.4091
4100.00,0.4121
4101.00,0.4113
4102.00,0.4233
4103.00,0.4324
4104.00,0.4459
4105.00,0.4572
4106.00,0.4710
4107.00,0.4744
4108.00,0.4661
4109.00,0.4526
4110.00,0.4256
4111.00,0.4173
4112.00,0.4219
4113.00,0.4378
4114.00,0.4399
4115.00,0.4472
4116.00,0.4476
4117.00,0.4420
4118.00,0.4504
4119.00,0.4699
4120.00,0.4886
4121.00,0.4909
4122.00,0.4744
4123.00,0.4736
4124.00,0.4676
4125.00,0.4661
4126.00,0.4535
4127.00,0.4522
4128.00,0.4467
4129.00,0.4384
4130.00,0.4218
4131.00,0.4038
4132.00,0.4023
4133.00,0.4232
4134.00,0.4384
4135.00,0.4534
4136.00,0.4804
4137.00,0.4924
4138.00,0.5044
4139.00,0.4796
4140.00,0.4388
4141.00,0.4263
4142.00,0.4143
4143.00,0.4098
4144.00,0.4218
4145.00,0.4384
4146.00,0.4534
4147.00,0.4690
4148.00,0.4643
4149.00,0.4754
4150.00,0.4787
4151.00,0.4826
4152.00,0.4841
4153.00,0.4883
4154.00,0.4974
4155.00,0.4999
4156.00,0.5119
4157.00,0.5284
4158.00,0.5479
4159.00,0.5585
4160.00,0.5524
4161.00,0.5399
4162.00,0.5284
4163.00,0.5134
4164.00,0.4924
4165.00,0.4864
4166.00,0.4789
4167.00,0.4744
4168.00,0.4952
4169.00,0.4714
4170.00,0.4691
4171.00,0.4474
4172.00,0.4414
4173.00,0.4384
4174.00,0.4613
4175.00,0.4885
4176.00,0.5107
4177.00,0.5284
4178.00,0.5344
4179.00,0.5254
4180.00,0.4984
4181.00,0.4834
4182.00,0.4871
4183.00,0.4939
4184.00,0.4871
4185.00,0.4654
4186.00,0.4624
4187.00,0.4646
4188.00,0.4901
4189.00,0.4986
4190.00,0.4954
4191.00,0.4937
4192.00,0.4890
4193.00,0.4832
4194.00,0.4894
4195.00,0.4804
4196.00,0.4618
4197.00,0.4384
4198.00,0.4354
4199.00,0.4376
4200.00,0.4432
4201.00,0.4342
4202.00,0.4474
4203.00,0.4724
4204.00,0.4704
4205.00,0.4691
4206.00,0.4699
4207.00,0.4646
4208.00,0.4714
4209.00,0.4699
4210.00,0.4670
4211.00,0.4564
4212.00,0.4466
4213.00,0.4339
4214.00,0.4128
4215.00,0.4001
4216.00,0.3933
4217.00,0.3855
4218.00,0.3933
4219.00,0.3573
4220.00,0.2972
4221.00,0.2515
4222.00,0.2094
4223.00,0.1741
4224.00,0.1500
4225.00,0.1321
4226.00,0.1411
4227.00,0.1668
4228.00,0.1925
4229.00,0.2148
4230.00,0.2431
4231.00,0.2708
4232.00,0.3012
4233.00,0.3243
4234.00,0.3445
4235.00,0.3633
4236.00,0.3888
4237.00,0.3933
4238.00,0.3972
4239.00,0.3843
4240.00,0.3903
4241.00,0.3993
4242.00,0.4151
4243.00,0.4350
4244.00,0.4376
4245.00,0.4180
4246.00,0.4031
4247.00,0.3933
4248.00,0.3993
4249.00,0.4083
4250.00,0.3963
4251.00,0.3723
4252.00,0.3333
4253.00,0.3303
4254.00,0.3355
4255.00,0.3573
4256.00,0.3783
4257.00,0.4001
4258.00,0.4143
4259.00,0.4229
4260.00,0.4354
4261.00,0.4480
4262.00,0.4579
4263.00,0.4721
4264.00,0.4849
4265.00,0.4864
4266.00,0.4792
4267.00,0.4789
4268.00,0.4654
4269.00,0.4143
4270.00,0.3693
4271.00,0.3363
4272.00,0.3363
4273.00,0.3304
4274.00,0.3633
4275.00,0.3783
4276.00,0.4203
4277.00,0.4552
4278.00,0.4864
4279.00,0.4984
4280.00,0.4624
4281.00,0.4624
4282.00,0.4534
4283.00,0.4684
4284.00,0.4594
4285.00,0.4335
4286.00,0.4102
4287.00,0.3646
4288.00,0.3483
4289.00,0.3483
4290.00,0.3833
4291.00,0.4196
4292.00,0.4498
4293.00,0.4864
4294.00,0.4919
4295.00,0.4984
4296.00,0.4804
4297.00,0.4414
4298.00,0.4203
4299.00,0.4187
4300.00,0.4235
4301.00,0.4256
4302.00,0.4564
4303.00,0.4444
4304.00,0.4173
4305.00,0.4023
4306.00,0.3783
4307.00,0.4083
4308.00,0.4587
4309.00,0.5164
4310.00,0.5344
4311.00,0.5555
4312.00,0.5585
4313.00,0.5645
4314.00,0.5502
4315.00,0.5377
4316.00,0.5374
4317.00,0.5434
4318.00,0.5581
4319.00,0.5682
4320.00,0.5810
4321.00,0.5825
4322.00,0.5617
4323.00,0.5453
4324.00,0.5393
4325.00,0.5224
4326.00,0.5344
4327.00,0.5389
4328.00,0.5885
4329.00,0.6284
4330.00,0.6485
4331.00,0.6545
4332.00,0.6575
4333.00,0.6575
4334.00,0.6575
4335.00,0.6455
4336.00,0.6078
4337.00,0.5855
4338.00,0.5765
4339.00,0.5855
4340.00,0.5945
4341.00,0.6035
4342.00,0.6065
4343.00,0.5884
4344.00,0.5825
4345.00,0.5945
4346.00,0.6305
4347.00,0.6425
4348.00,0.6305
4349.00,0.6080
4350.00,0.5841
4351.00,0.5269
4352.00,0.5224
4353.00,0.5434
4354.00,0.5690
4355.00,0.5862
4356.00,0.5975
4357.00,0.6210
4358.00,0.6125
4359.00,0.6185
4360.00,0.6144
4361.00,0.6335
4362.00,0.6403
4363.00,0.6478
4364.00,0.6463
4365.00,0.6313
4366.00,0.6380
4367.00,0.6575
4368.00,0.6635
4369.00,0.6673
4370.00,0.6654
4371.00,0.6529
4372.00,0.6504
4373.00,0.6380
4374.00,0.6185
4375.00,0.6185
4376.00,0.6365
4377.00,0.6275
4378.00,0.6092
4379.00,0.5765
4380.00,0.5540
4381.00,0.5224
4382.00,0.5014
4383.00,0.5044
4384.00,0.5044
4385.00,0.5711
4386.00,0.5915
4387.00,0.6185
4388.00,0.6260
4389.00,0.6455
4390.00,0.6891
4391.00,0.6966
4392.00,0.6889
4393.00,0.6545
4394.00,0.6876
4395.00,0.6936
4396.00,0.7206
4397.00,0.7236
4398.00,0.7266
4399.00,0.7293
4400.00,0.6966
4401.00,0.6846
4402.00,0.6185
4403.00,0.5885
4404.00,0.5585
4405.00,0.5645
4406.00,0.5828
4407.00,0.6178
4408.00,0.6380
4409.00,0.6635
4410.00,0.6786
4411.00,0.6786
4412.00,0.6966
4413.00,0.6577
4414.00,0.6786
4415.00,0.6816
4416.00,0.7356
4417.00,0.7596
4418.00,0.7746
4419.00,0.7626
4420.00,0.7697
4421.00,0.7116
4422.00,0.6996
4423.00,0.6906
4424.00,0.6695
4425.00,0.6485
4426.00,0.6335
4427.00,0.6976
4428.00,0.7266
4429.00,0.7506
4430.00,0.7416
4431.00,0.7116
4432.00,0.6605
4433.00,0.6695
4434.00,0.6068
4435.00,0.6786
4436.00,0.6816
4437.00,0.7476
4438.00,0.7926
4439.00,0.8107
4440.00,0.8047
4441.00,0.7902
4442.00,0.7926
4443.00,0.7964
4444.00,0.8174
4445.00,0.8242
4446.00,0.8137
4447.00,0.8047
4448.00,0.8030
4449.00,0.7926
4450.00,0.7506
4451.00,0.7086
4452.00,0.6365
4453.00,0.5885
4454.00,0.5735
4455.00,0.6037
4456.00,0.6245
4457.00,0.6395
4458.00,0.6485
4459.00,0.6725
4460.00,0.6906
4461.00,0.7086
4462.00,0.7895
4463.00,0.8167
4464.00,0.8457
4465.00,0.8446
4466.00,0.8514
4467.00,0.8553
4468.00,0.8827
4469.00,0.8968
4470.00,0.9248
4471.00,0.9157
4472.00,0.9248
4473.00,0.9067
4474.00,0.9278
4475.00,0.9578
4476.00,0.9538
4477.00,0.9353
4478.00,0.9353
4479.00,0.9097
4480.00,0.9308
4481.00,0.9428
4482.00,0.9488
4483.00,0.9403
4484.00,0.9338
4485.00,0.9285
4486.00,0.9022
4487.00,0.8872
4488.00,0.8887
4489.00,0.8887
4490.00,0.9342
4491.00,0.9127
4492.00,0.9187
4493.00,0.9127
4494.00,0.9067
4495.00,0.8887
4496.00,0.9007
4497.00,0.9626
4498.00,0.9758
4499.00,0.9976
4500.00,1.0000
